#  E (eV)   dos(E)     Int dos(E) EFermi =   -2.187 eV
  -5.000  0.5558E+01  0.2496E+02
  -4.990  0.5033E+01  0.2501E+02
  -4.980  0.4852E+01  0.2506E+02
  -4.970  0.2050E+01  0.2511E+02
  -4.960  0.2035E+01  0.2513E+02
  -4.950  0.1929E+01  0.2515E+02
  -4.940  0.1837E+01  0.2517E+02
  -4.930  0.1785E+01  0.2519E+02
  -4.920  0.1728E+01  0.2520E+02
  -4.910  0.1725E+01  0.2522E+02
  -4.900  0.1742E+01  0.2524E+02
  -4.890  0.1669E+01  0.2525E+02
  -4.880  0.1616E+01  0.2527E+02
  -4.870  0.1624E+01  0.2529E+02
  -4.860  0.1642E+01  0.2530E+02
  -4.850  0.1763E+01  0.2532E+02
  -4.840  0.1872E+01  0.2534E+02
  -4.830  0.1842E+01  0.2536E+02
  -4.820  0.2155E+01  0.2538E+02
  -4.810  0.2075E+01  0.2540E+02
  -4.800  0.1243E+01  0.2542E+02
  -4.790  0.1132E+01  0.2543E+02
  -4.780  0.9981E+00  0.2544E+02
  -4.770  0.9458E+00  0.2545E+02
  -4.760  0.9051E+00  0.2546E+02
  -4.750  0.8328E+00  0.2547E+02
  -4.740  0.8014E+00  0.2548E+02
  -4.730  0.7745E+00  0.2548E+02
  -4.720  0.7507E+00  0.2549E+02
  -4.710  0.7224E+00  0.2550E+02
  -4.700  0.6856E+00  0.2551E+02
  -4.690  0.6673E+00  0.2551E+02
  -4.680  0.6493E+00  0.2552E+02
  -4.670  0.6328E+00  0.2553E+02
  -4.660  0.6179E+00  0.2553E+02
  -4.650  0.6648E+00  0.2554E+02
  -4.640  0.8636E+00  0.2555E+02
  -4.630  0.1134E+01  0.2556E+02
  -4.620  0.9629E+00  0.2557E+02
  -4.610  0.1000E+01  0.2558E+02
  -4.600  0.1057E+01  0.2559E+02
  -4.590  0.1402E+01  0.2560E+02
  -4.580  0.1188E+01  0.2561E+02
  -4.570  0.1145E+01  0.2562E+02
  -4.560  0.1148E+01  0.2563E+02
  -4.550  0.1179E+01  0.2565E+02
  -4.540  0.1221E+01  0.2566E+02
  -4.530  0.1232E+01  0.2567E+02
  -4.520  0.1263E+01  0.2568E+02
  -4.510  0.1276E+01  0.2570E+02
  -4.500  0.1292E+01  0.2571E+02
  -4.490  0.1350E+01  0.2572E+02
  -4.480  0.1396E+01  0.2574E+02
  -4.470  0.1381E+01  0.2575E+02
  -4.460  0.1364E+01  0.2576E+02
  -4.450  0.1403E+01  0.2578E+02
  -4.440  0.1435E+01  0.2579E+02
  -4.430  0.1441E+01  0.2581E+02
  -4.420  0.1459E+01  0.2582E+02
  -4.410  0.1542E+01  0.2583E+02
  -4.400  0.1530E+01  0.2585E+02
  -4.390  0.1543E+01  0.2587E+02
  -4.380  0.1604E+01  0.2588E+02
  -4.370  0.1634E+01  0.2590E+02
  -4.360  0.1655E+01  0.2591E+02
  -4.350  0.1708E+01  0.2593E+02
  -4.340  0.1753E+01  0.2595E+02
  -4.330  0.1758E+01  0.2597E+02
  -4.320  0.1767E+01  0.2598E+02
  -4.310  0.1833E+01  0.2600E+02
  -4.300  0.1913E+01  0.2602E+02
  -4.290  0.1996E+01  0.2604E+02
  -4.280  0.2037E+01  0.2606E+02
  -4.270  0.2162E+01  0.2608E+02
  -4.260  0.2229E+01  0.2610E+02
  -4.250  0.2418E+01  0.2613E+02
  -4.240  0.2569E+01  0.2615E+02
  -4.230  0.3075E+01  0.2618E+02
  -4.220  0.3087E+01  0.2621E+02
  -4.210  0.2554E+01  0.2624E+02
  -4.200  0.2378E+01  0.2626E+02
  -4.190  0.2239E+01  0.2629E+02
  -4.180  0.2124E+01  0.2631E+02
  -4.170  0.2019E+01  0.2633E+02
  -4.160  0.1990E+01  0.2635E+02
  -4.150  0.1926E+01  0.2637E+02
  -4.140  0.1913E+01  0.2639E+02
  -4.130  0.1831E+01  0.2641E+02
  -4.120  0.1815E+01  0.2643E+02
  -4.110  0.1724E+01  0.2644E+02
  -4.100  0.1676E+01  0.2646E+02
  -4.090  0.1778E+01  0.2648E+02
  -4.080  0.1542E+01  0.2649E+02
  -4.070  0.1387E+01  0.2651E+02
  -4.060  0.1193E+01  0.2652E+02
  -4.050  0.1189E+01  0.2653E+02
  -4.040  0.1187E+01  0.2655E+02
  -4.030  0.1186E+01  0.2656E+02
  -4.020  0.1186E+01  0.2657E+02
  -4.010  0.1188E+01  0.2658E+02
  -4.000  0.1192E+01  0.2659E+02
  -3.990  0.1189E+01  0.2661E+02
  -3.980  0.1182E+01  0.2662E+02
  -3.970  0.1175E+01  0.2663E+02
  -3.960  0.1173E+01  0.2664E+02
  -3.950  0.1172E+01  0.2665E+02
  -3.940  0.1171E+01  0.2666E+02
  -3.930  0.1170E+01  0.2668E+02
  -3.920  0.1173E+01  0.2669E+02
  -3.910  0.1175E+01  0.2670E+02
  -3.900  0.1183E+01  0.2671E+02
  -3.890  0.1186E+01  0.2672E+02
  -3.880  0.1190E+01  0.2674E+02
  -3.870  0.1200E+01  0.2675E+02
  -3.860  0.1205E+01  0.2676E+02
  -3.850  0.1210E+01  0.2677E+02
  -3.840  0.1214E+01  0.2678E+02
  -3.830  0.1219E+01  0.2680E+02
  -3.820  0.1223E+01  0.2681E+02
  -3.810  0.1228E+01  0.2682E+02
  -3.800  0.1233E+01  0.2683E+02
  -3.790  0.1241E+01  0.2684E+02
  -3.780  0.1249E+01  0.2686E+02
  -3.770  0.1281E+01  0.2687E+02
  -3.760  0.1298E+01  0.2688E+02
  -3.750  0.1312E+01  0.2690E+02
  -3.740  0.1325E+01  0.2691E+02
  -3.730  0.1340E+01  0.2692E+02
  -3.720  0.1359E+01  0.2694E+02
  -3.710  0.1380E+01  0.2695E+02
  -3.700  0.1406E+01  0.2696E+02
  -3.690  0.1494E+01  0.2698E+02
  -3.680  0.1559E+01  0.2699E+02
  -3.670  0.1613E+01  0.2701E+02
  -3.660  0.1806E+01  0.2703E+02
  -3.650  0.1857E+01  0.2704E+02
  -3.640  0.1934E+01  0.2707E+02
  -3.630  0.1673E+01  0.2708E+02
  -3.620  0.1489E+01  0.2710E+02
  -3.610  0.1345E+01  0.2711E+02
  -3.600  0.1435E+01  0.2713E+02
  -3.590  0.1268E+01  0.2714E+02
  -3.580  0.1202E+01  0.2715E+02
  -3.570  0.1179E+01  0.2716E+02
  -3.560  0.1255E+01  0.2718E+02
  -3.550  0.1098E+01  0.2719E+02
  -3.540  0.1087E+01  0.2720E+02
  -3.530  0.1070E+01  0.2721E+02
  -3.520  0.1048E+01  0.2722E+02
  -3.510  0.1035E+01  0.2723E+02
  -3.500  0.1005E+01  0.2724E+02
  -3.490  0.9979E+00  0.2725E+02
  -3.480  0.9859E+00  0.2726E+02
  -3.470  0.1450E+01  0.2727E+02
  -3.460  0.1514E+01  0.2729E+02
  -3.450  0.1583E+01  0.2730E+02
  -3.440  0.1425E+01  0.2732E+02
  -3.430  0.1497E+01  0.2733E+02
  -3.420  0.1489E+01  0.2735E+02
  -3.410  0.1566E+01  0.2736E+02
  -3.400  0.5950E+01  0.2738E+02
  -3.390  0.2239E+01  0.2740E+02
  -3.380  0.2480E+01  0.2743E+02
  -3.370  0.2623E+01  0.2745E+02
  -3.360  0.2736E+01  0.2748E+02
  -3.350  0.3223E+01  0.2751E+02
  -3.340  0.3448E+01  0.2754E+02
  -3.330  0.4356E+01  0.2758E+02
  -3.320  0.5214E+01  0.2763E+02
  -3.310  0.3917E+01  0.2767E+02
  -3.300  0.3436E+01  0.2771E+02
  -3.290  0.3192E+01  0.2774E+02
  -3.280  0.2955E+01  0.2777E+02
  -3.270  0.2816E+01  0.2780E+02
  -3.260  0.2758E+01  0.2783E+02
  -3.250  0.2609E+01  0.2786E+02
  -3.240  0.2533E+01  0.2788E+02
  -3.230  0.2478E+01  0.2791E+02
  -3.220  0.2424E+01  0.2793E+02
  -3.210  0.2350E+01  0.2796E+02
  -3.200  0.2314E+01  0.2798E+02
  -3.190  0.2272E+01  0.2800E+02
  -3.180  0.2265E+01  0.2803E+02
  -3.170  0.2319E+01  0.2805E+02
  -3.160  0.2155E+01  0.2807E+02
  -3.150  0.2124E+01  0.2809E+02
  -3.140  0.2096E+01  0.2811E+02
  -3.130  0.2072E+01  0.2813E+02
  -3.120  0.2035E+01  0.2815E+02
  -3.110  0.2023E+01  0.2817E+02
  -3.100  0.2011E+01  0.2819E+02
  -3.090  0.2027E+01  0.2821E+02
  -3.080  0.1978E+01  0.2823E+02
  -3.070  0.1940E+01  0.2825E+02
  -3.060  0.1918E+01  0.2827E+02
  -3.050  0.1901E+01  0.2829E+02
  -3.040  0.1883E+01  0.2831E+02
  -3.030  0.1870E+01  0.2833E+02
  -3.020  0.1855E+01  0.2835E+02
  -3.010  0.1846E+01  0.2837E+02
  -3.000  0.1867E+01  0.2839E+02
  -2.990  0.1890E+01  0.2840E+02
  -2.980  0.1810E+01  0.2842E+02
  -2.970  0.1800E+01  0.2844E+02
  -2.960  0.1780E+01  0.2846E+02
  -2.950  0.1766E+01  0.2848E+02
  -2.940  0.1758E+01  0.2849E+02
  -2.930  0.1752E+01  0.2851E+02
  -2.920  0.1749E+01  0.2853E+02
  -2.910  0.1749E+01  0.2855E+02
  -2.900  0.1782E+01  0.2856E+02
  -2.890  0.1745E+01  0.2858E+02
  -2.880  0.1730E+01  0.2860E+02
  -2.870  0.1714E+01  0.2862E+02
  -2.860  0.1708E+01  0.2863E+02
  -2.850  0.1699E+01  0.2865E+02
  -2.840  0.1700E+01  0.2867E+02
  -2.830  0.1686E+01  0.2869E+02
  -2.820  0.1673E+01  0.2870E+02
  -2.810  0.1685E+01  0.2872E+02
  -2.800  0.1712E+01  0.2874E+02
  -2.790  0.1685E+01  0.2875E+02
  -2.780  0.1682E+01  0.2877E+02
  -2.770  0.1675E+01  0.2879E+02
  -2.760  0.1672E+01  0.2880E+02
  -2.750  0.1682E+01  0.2882E+02
  -2.740  0.1674E+01  0.2884E+02
  -2.730  0.1677E+01  0.2885E+02
  -2.720  0.1674E+01  0.2887E+02
  -2.710  0.1685E+01  0.2889E+02
  -2.700  0.1715E+01  0.2890E+02
  -2.690  0.1698E+01  0.2892E+02
  -2.680  0.1712E+01  0.2894E+02
  -2.670  0.1699E+01  0.2896E+02
  -2.660  0.1678E+01  0.2897E+02
  -2.650  0.1693E+01  0.2899E+02
  -2.640  0.1694E+01  0.2901E+02
  -2.630  0.1700E+01  0.2902E+02
  -2.620  0.1720E+01  0.2904E+02
  -2.610  0.1796E+01  0.2906E+02
  -2.600  0.1859E+01  0.2908E+02
  -2.590  0.1812E+01  0.2909E+02
  -2.580  0.1792E+01  0.2911E+02
  -2.570  0.1803E+01  0.2913E+02
  -2.560  0.1831E+01  0.2915E+02
  -2.550  0.1965E+01  0.2917E+02
  -2.540  0.1900E+01  0.2919E+02
  -2.530  0.1942E+01  0.2921E+02
  -2.520  0.1782E+01  0.2922E+02
  -2.510  0.1817E+01  0.2924E+02
  -2.500  0.1862E+01  0.2926E+02
  -2.490  0.1909E+01  0.2928E+02
  -2.480  0.1932E+01  0.2930E+02
  -2.470  0.1962E+01  0.2932E+02
  -2.460  0.2033E+01  0.2934E+02
  -2.450  0.2102E+01  0.2936E+02
  -2.440  0.2273E+01  0.2938E+02
  -2.430  0.2347E+01  0.2940E+02
  -2.420  0.2660E+01  0.2943E+02
  -2.410  0.2858E+01  0.2946E+02
  -2.400  0.3096E+01  0.2949E+02
  -2.390  0.3597E+01  0.2952E+02
  -2.380  0.8186E+01  0.2957E+02
  -2.370  0.1254E+02  0.2970E+02
  -2.360  0.8463E+01  0.2980E+02
  -2.350  0.8150E+01  0.2988E+02
  -2.340  0.7586E+00  0.2993E+02
  -2.330  0.6668E+00  0.2994E+02
  -2.320  0.5584E+00  0.2994E+02
  -2.310  0.5161E+00  0.2995E+02
  -2.300  0.4802E+00  0.2995E+02
  -2.290  0.4742E+00  0.2996E+02
  -2.280  0.4863E+00  0.2996E+02
  -2.270  0.4686E+00  0.2997E+02
  -2.260  0.4537E+00  0.2997E+02
  -2.250  0.4791E+00  0.2998E+02
  -2.240  0.4109E+00  0.2998E+02
  -2.230  0.4302E+00  0.2998E+02
  -2.220  0.3714E+00  0.2999E+02
  -2.210  0.4101E+00  0.2999E+02
  -2.200  0.3491E+00  0.3000E+02
  -2.190  0.3612E+00  0.3000E+02
  -2.180  0.0000E+00  0.3000E+02
  -2.170  0.0000E+00  0.3000E+02
  -2.160  0.0000E+00  0.3000E+02
  -2.150  0.0000E+00  0.3000E+02
  -2.140  0.0000E+00  0.3000E+02
  -2.130  0.0000E+00  0.3000E+02
  -2.120  0.0000E+00  0.3000E+02
  -2.110  0.0000E+00  0.3000E+02
  -2.100  0.0000E+00  0.3000E+02
  -2.090  0.0000E+00  0.3000E+02
  -2.080  0.0000E+00  0.3000E+02
  -2.070  0.0000E+00  0.3000E+02
  -2.060  0.0000E+00  0.3000E+02
  -2.050  0.0000E+00  0.3000E+02
  -2.040  0.0000E+00  0.3000E+02
  -2.030  0.0000E+00  0.3000E+02
  -2.020  0.0000E+00  0.3000E+02
  -2.010  0.0000E+00  0.3000E+02
  -2.000  0.0000E+00  0.3000E+02
  -1.990  0.0000E+00  0.3000E+02
  -1.980  0.0000E+00  0.3000E+02
  -1.970  0.0000E+00  0.3000E+02
  -1.960  0.0000E+00  0.3000E+02
  -1.950  0.0000E+00  0.3000E+02
  -1.940  0.0000E+00  0.3000E+02
  -1.930  0.0000E+00  0.3000E+02
  -1.920  0.0000E+00  0.3000E+02
  -1.910  0.0000E+00  0.3000E+02
  -1.900  0.0000E+00  0.3000E+02
  -1.890  0.0000E+00  0.3000E+02
  -1.880  0.0000E+00  0.3000E+02
  -1.870  0.0000E+00  0.3000E+02
  -1.860  0.0000E+00  0.3000E+02
  -1.850  0.0000E+00  0.3000E+02
  -1.840  0.0000E+00  0.3000E+02
  -1.830  0.0000E+00  0.3000E+02
  -1.820  0.0000E+00  0.3000E+02
  -1.810  0.0000E+00  0.3000E+02
  -1.800  0.0000E+00  0.3000E+02
  -1.790  0.0000E+00  0.3000E+02
  -1.780  0.0000E+00  0.3000E+02
  -1.770  0.0000E+00  0.3000E+02
  -1.760  0.0000E+00  0.3000E+02
  -1.750  0.0000E+00  0.3000E+02
  -1.740  0.0000E+00  0.3000E+02
  -1.730  0.0000E+00  0.3000E+02
  -1.720  0.0000E+00  0.3000E+02
  -1.710  0.0000E+00  0.3000E+02
  -1.700  0.0000E+00  0.3000E+02
  -1.690  0.0000E+00  0.3000E+02
  -1.680  0.0000E+00  0.3000E+02
  -1.670  0.0000E+00  0.3000E+02
  -1.660  0.0000E+00  0.3000E+02
  -1.650  0.0000E+00  0.3000E+02
  -1.640  0.0000E+00  0.3000E+02
  -1.630  0.0000E+00  0.3000E+02
  -1.620  0.0000E+00  0.3000E+02
  -1.610  0.0000E+00  0.3000E+02
  -1.600  0.0000E+00  0.3000E+02
  -1.590  0.0000E+00  0.3000E+02
  -1.580  0.0000E+00  0.3000E+02
  -1.570  0.0000E+00  0.3000E+02
  -1.560  0.0000E+00  0.3000E+02
  -1.550  0.0000E+00  0.3000E+02
  -1.540  0.0000E+00  0.3000E+02
  -1.530  0.0000E+00  0.3000E+02
  -1.520  0.0000E+00  0.3000E+02
  -1.510  0.0000E+00  0.3000E+02
  -1.500  0.0000E+00  0.3000E+02
  -1.490  0.0000E+00  0.3000E+02
  -1.480  0.0000E+00  0.3000E+02
  -1.470  0.0000E+00  0.3000E+02
  -1.460  0.0000E+00  0.3000E+02
  -1.450  0.0000E+00  0.3000E+02
  -1.440  0.0000E+00  0.3000E+02
  -1.430  0.0000E+00  0.3000E+02
  -1.420  0.0000E+00  0.3000E+02
  -1.410  0.0000E+00  0.3000E+02
  -1.400  0.0000E+00  0.3000E+02
  -1.390  0.0000E+00  0.3000E+02
  -1.380  0.0000E+00  0.3000E+02
  -1.370  0.0000E+00  0.3000E+02
  -1.360  0.0000E+00  0.3000E+02
  -1.350  0.0000E+00  0.3000E+02
  -1.340  0.0000E+00  0.3000E+02
  -1.330  0.0000E+00  0.3000E+02
  -1.320  0.0000E+00  0.3000E+02
  -1.310  0.0000E+00  0.3000E+02
  -1.300  0.0000E+00  0.3000E+02
  -1.290  0.0000E+00  0.3000E+02
  -1.280  0.0000E+00  0.3000E+02
  -1.270  0.0000E+00  0.3000E+02
  -1.260  0.0000E+00  0.3000E+02
  -1.250  0.0000E+00  0.3000E+02
  -1.240  0.0000E+00  0.3000E+02
  -1.230  0.0000E+00  0.3000E+02
  -1.220  0.0000E+00  0.3000E+02
  -1.210  0.0000E+00  0.3000E+02
  -1.200  0.0000E+00  0.3000E+02
  -1.190  0.0000E+00  0.3000E+02
  -1.180  0.0000E+00  0.3000E+02
  -1.170  0.0000E+00  0.3000E+02
  -1.160  0.0000E+00  0.3000E+02
  -1.150  0.0000E+00  0.3000E+02
  -1.140  0.0000E+00  0.3000E+02
  -1.130  0.0000E+00  0.3000E+02
  -1.120  0.0000E+00  0.3000E+02
  -1.110  0.0000E+00  0.3000E+02
  -1.100  0.0000E+00  0.3000E+02
  -1.090  0.0000E+00  0.3000E+02
  -1.080  0.0000E+00  0.3000E+02
  -1.070  0.0000E+00  0.3000E+02
  -1.060  0.0000E+00  0.3000E+02
  -1.050  0.0000E+00  0.3000E+02
  -1.040  0.0000E+00  0.3000E+02
  -1.030  0.0000E+00  0.3000E+02
  -1.020  0.0000E+00  0.3000E+02
  -1.010  0.0000E+00  0.3000E+02
  -1.000  0.0000E+00  0.3000E+02
  -0.990  0.0000E+00  0.3000E+02
  -0.980  0.0000E+00  0.3000E+02
  -0.970  0.0000E+00  0.3000E+02
  -0.960  0.0000E+00  0.3000E+02
  -0.950  0.0000E+00  0.3000E+02
  -0.940  0.0000E+00  0.3000E+02
  -0.930  0.0000E+00  0.3000E+02
  -0.920  0.0000E+00  0.3000E+02
  -0.910  0.0000E+00  0.3000E+02
  -0.900  0.0000E+00  0.3000E+02
  -0.890  0.0000E+00  0.3000E+02
  -0.880  0.0000E+00  0.3000E+02
  -0.870  0.0000E+00  0.3000E+02
  -0.860  0.0000E+00  0.3000E+02
  -0.850  0.0000E+00  0.3000E+02
  -0.840  0.0000E+00  0.3000E+02
  -0.830  0.0000E+00  0.3000E+02
  -0.820  0.0000E+00  0.3000E+02
  -0.810  0.0000E+00  0.3000E+02
  -0.800  0.0000E+00  0.3000E+02
  -0.790  0.0000E+00  0.3000E+02
  -0.780  0.0000E+00  0.3000E+02
  -0.770  0.0000E+00  0.3000E+02
  -0.760  0.0000E+00  0.3000E+02
  -0.750  0.0000E+00  0.3000E+02
  -0.740  0.0000E+00  0.3000E+02
  -0.730  0.0000E+00  0.3000E+02
  -0.720  0.0000E+00  0.3000E+02
  -0.710  0.0000E+00  0.3000E+02
  -0.700  0.0000E+00  0.3000E+02
  -0.690  0.0000E+00  0.3000E+02
  -0.680  0.0000E+00  0.3000E+02
  -0.670  0.0000E+00  0.3000E+02
  -0.660  0.0000E+00  0.3000E+02
  -0.650  0.0000E+00  0.3000E+02
  -0.640  0.0000E+00  0.3000E+02
  -0.630  0.0000E+00  0.3000E+02
  -0.620  0.0000E+00  0.3000E+02
  -0.610  0.0000E+00  0.3000E+02
  -0.600  0.0000E+00  0.3000E+02
  -0.590  0.0000E+00  0.3000E+02
  -0.580  0.0000E+00  0.3000E+02
  -0.570  0.0000E+00  0.3000E+02
  -0.560  0.0000E+00  0.3000E+02
  -0.550  0.0000E+00  0.3000E+02
  -0.540  0.0000E+00  0.3000E+02
  -0.530  0.0000E+00  0.3000E+02
  -0.520  0.0000E+00  0.3000E+02
  -0.510  0.0000E+00  0.3000E+02
  -0.500  0.0000E+00  0.3000E+02
  -0.490  0.0000E+00  0.3000E+02
  -0.480  0.0000E+00  0.3000E+02
  -0.470  0.0000E+00  0.3000E+02
  -0.460  0.0000E+00  0.3000E+02
  -0.450  0.0000E+00  0.3000E+02
  -0.440  0.0000E+00  0.3000E+02
  -0.430  0.0000E+00  0.3000E+02
  -0.420  0.0000E+00  0.3000E+02
  -0.410  0.0000E+00  0.3000E+02
  -0.400  0.0000E+00  0.3000E+02
  -0.390  0.0000E+00  0.3000E+02
  -0.380  0.2464E-01  0.3000E+02
  -0.370  0.9842E+00  0.3001E+02
  -0.360  0.1113E+01  0.3002E+02
  -0.350  0.1010E+01  0.3003E+02
  -0.340  0.1052E+01  0.3004E+02
  -0.330  0.1434E+01  0.3005E+02
  -0.320  0.1076E+01  0.3006E+02
  -0.310  0.1060E+01  0.3007E+02
  -0.300  0.1065E+01  0.3008E+02
  -0.290  0.1094E+01  0.3009E+02
  -0.280  0.1145E+01  0.3010E+02
  -0.270  0.1158E+01  0.3012E+02
  -0.260  0.1166E+01  0.3013E+02
  -0.250  0.1194E+01  0.3014E+02
  -0.240  0.1195E+01  0.3015E+02
  -0.230  0.1200E+01  0.3016E+02
  -0.220  0.1221E+01  0.3018E+02
  -0.210  0.1237E+01  0.3019E+02
  -0.200  0.1326E+01  0.3020E+02
  -0.190  0.1366E+01  0.3022E+02
  -0.180  0.1318E+01  0.3023E+02
  -0.170  0.1348E+01  0.3024E+02
  -0.160  0.1630E+01  0.3026E+02
  -0.150  0.1424E+01  0.3027E+02
  -0.140  0.1495E+01  0.3029E+02
  -0.130  0.1492E+01  0.3030E+02
  -0.120  0.1494E+01  0.3032E+02
  -0.110  0.1537E+01  0.3033E+02
  -0.100  0.1552E+01  0.3035E+02
  -0.090  0.1571E+01  0.3036E+02
  -0.080  0.1592E+01  0.3038E+02
  -0.070  0.1718E+01  0.3040E+02
  -0.060  0.2154E+01  0.3042E+02
  -0.050  0.2725E+01  0.3044E+02
  -0.040  0.2391E+01  0.3047E+02
  -0.030  0.2323E+01  0.3049E+02
  -0.020  0.2324E+01  0.3051E+02
  -0.010  0.2329E+01  0.3054E+02
   0.000  0.2205E+01  0.3056E+02
   0.010  0.2143E+01  0.3058E+02
   0.020  0.2160E+01  0.3060E+02
   0.030  0.2193E+01  0.3063E+02
   0.040  0.2189E+01  0.3065E+02
   0.050  0.2176E+01  0.3067E+02
   0.060  0.2168E+01  0.3069E+02
   0.070  0.2172E+01  0.3071E+02
   0.080  0.2200E+01  0.3073E+02
   0.090  0.2263E+01  0.3076E+02
   0.100  0.2292E+01  0.3078E+02
   0.110  0.2269E+01  0.3080E+02
   0.120  0.2252E+01  0.3082E+02
   0.130  0.2280E+01  0.3085E+02
   0.140  0.2298E+01  0.3087E+02
   0.150  0.2324E+01  0.3089E+02
   0.160  0.2357E+01  0.3092E+02
   0.170  0.2408E+01  0.3094E+02
   0.180  0.2457E+01  0.3096E+02
   0.190  0.2542E+01  0.3099E+02
   0.200  0.2552E+01  0.3102E+02
   0.210  0.2592E+01  0.3104E+02
   0.220  0.2737E+01  0.3107E+02
   0.230  0.2820E+01  0.3110E+02
   0.240  0.2934E+01  0.3112E+02
   0.250  0.3073E+01  0.3115E+02
   0.260  0.3120E+01  0.3119E+02
   0.270  0.3106E+01  0.3122E+02
   0.280  0.2973E+01  0.3125E+02
   0.290  0.3081E+01  0.3128E+02
   0.300  0.3023E+01  0.3131E+02
   0.310  0.3024E+01  0.3134E+02
   0.320  0.3126E+01  0.3137E+02
   0.330  0.3212E+01  0.3140E+02
   0.340  0.3520E+01  0.3143E+02
   0.350  0.3763E+01  0.3147E+02
   0.360  0.3841E+01  0.3151E+02
   0.370  0.3656E+01  0.3155E+02
   0.380  0.3614E+01  0.3158E+02
   0.390  0.3333E+01  0.3162E+02
   0.400  0.3303E+01  0.3165E+02
   0.410  0.3147E+01  0.3168E+02
   0.420  0.3617E+01  0.3172E+02
   0.430  0.3607E+01  0.3175E+02
   0.440  0.3870E+01  0.3179E+02
   0.450  0.2579E+01  0.3182E+02
   0.460  0.2448E+01  0.3185E+02
   0.470  0.2216E+01  0.3187E+02
   0.480  0.2083E+01  0.3189E+02
   0.490  0.1819E+01  0.3191E+02
   0.500  0.1407E+01  0.3193E+02
   0.510  0.1047E+01  0.3194E+02
   0.520  0.9877E+00  0.3195E+02
   0.530  0.7974E+00  0.3196E+02
   0.540  0.7199E+00  0.3197E+02
   0.550  0.6761E+00  0.3197E+02
   0.560  0.7069E+00  0.3198E+02
   0.570  0.8628E+00  0.3199E+02
   0.580  0.5136E+00  0.3199E+02
   0.590  0.2607E+00  0.3200E+02
   0.600  0.1240E-01  0.3200E+02
   0.610  0.0000E+00  0.3200E+02
   0.620  0.0000E+00  0.3200E+02
   0.630  0.0000E+00  0.3200E+02
   0.640  0.0000E+00  0.3200E+02
   0.650  0.0000E+00  0.3200E+02
   0.660  0.0000E+00  0.3200E+02
   0.670  0.0000E+00  0.3200E+02
   0.680  0.0000E+00  0.3200E+02
   0.690  0.0000E+00  0.3200E+02
   0.700  0.0000E+00  0.3200E+02
   0.710  0.0000E+00  0.3200E+02
   0.720  0.0000E+00  0.3200E+02
   0.730  0.0000E+00  0.3200E+02
   0.740  0.0000E+00  0.3200E+02
   0.750  0.0000E+00  0.3200E+02
   0.760  0.0000E+00  0.3200E+02
   0.770  0.0000E+00  0.3200E+02
   0.780  0.0000E+00  0.3200E+02
   0.790  0.0000E+00  0.3200E+02
   0.800  0.0000E+00  0.3200E+02
   0.810  0.0000E+00  0.3200E+02
   0.820  0.0000E+00  0.3200E+02
   0.830  0.0000E+00  0.3200E+02
   0.840  0.0000E+00  0.3200E+02
   0.850  0.7968E+00  0.3200E+02
   0.860  0.9562E+00  0.3201E+02
   0.870  0.2108E+01  0.3203E+02
   0.880  0.2394E+01  0.3205E+02
   0.890  0.1558E+01  0.3207E+02
   0.900  0.1289E+01  0.3208E+02
   0.910  0.1130E+01  0.3209E+02
   0.920  0.1091E+01  0.3210E+02
   0.930  0.1035E+01  0.3211E+02
   0.940  0.1028E+01  0.3212E+02
   0.950  0.1023E+01  0.3213E+02
   0.960  0.9511E+00  0.3214E+02
   0.970  0.9647E+00  0.3215E+02
   0.980  0.1255E+01  0.3217E+02
   0.990  0.1402E+01  0.3218E+02
   1.000  0.1735E+01  0.3219E+02
   1.010  0.1517E+01  0.3221E+02
   1.020  0.1592E+01  0.3223E+02
   1.030  0.1609E+01  0.3224E+02
