#  E (eV)   dos(E)     Int dos(E) EFermi =    1.020 eV
  -5.000  0.0000E+00  0.4800E+02
  -4.990  0.0000E+00  0.4800E+02
  -4.980  0.0000E+00  0.4800E+02
  -4.970  0.0000E+00  0.4800E+02
  -4.960  0.0000E+00  0.4800E+02
  -4.950  0.0000E+00  0.4800E+02
  -4.940  0.0000E+00  0.4800E+02
  -4.930  0.0000E+00  0.4800E+02
  -4.920  0.0000E+00  0.4800E+02
  -4.910  0.0000E+00  0.4800E+02
  -4.900  0.0000E+00  0.4800E+02
  -4.890  0.0000E+00  0.4800E+02
  -4.880  0.0000E+00  0.4800E+02
  -4.870  0.0000E+00  0.4800E+02
  -4.860  0.0000E+00  0.4800E+02
  -4.850  0.0000E+00  0.4800E+02
  -4.840  0.0000E+00  0.4800E+02
  -4.830  0.0000E+00  0.4800E+02
  -4.820  0.0000E+00  0.4800E+02
  -4.810  0.0000E+00  0.4800E+02
  -4.800  0.0000E+00  0.4800E+02
  -4.790  0.0000E+00  0.4800E+02
  -4.780  0.0000E+00  0.4800E+02
  -4.770  0.0000E+00  0.4800E+02
  -4.760  0.1616E+01  0.4800E+02
  -4.750  0.1491E+01  0.4802E+02
  -4.740  0.1412E+01  0.4804E+02
  -4.730  0.1311E+01  0.4805E+02
  -4.720  0.1185E+01  0.4806E+02
  -4.710  0.1218E+01  0.4808E+02
  -4.700  0.1148E+01  0.4809E+02
  -4.690  0.1147E+01  0.4810E+02
  -4.680  0.1084E+01  0.4811E+02
  -4.670  0.1113E+01  0.4812E+02
  -4.660  0.1091E+01  0.4813E+02
  -4.650  0.1091E+01  0.4814E+02
  -4.640  0.1047E+01  0.4815E+02
  -4.630  0.1035E+01  0.4816E+02
  -4.620  0.1049E+01  0.4817E+02
  -4.610  0.1067E+01  0.4819E+02
  -4.600  0.1027E+01  0.4820E+02
  -4.590  0.1016E+01  0.4821E+02
  -4.580  0.1004E+01  0.4822E+02
  -4.570  0.1002E+01  0.4823E+02
  -4.560  0.1014E+01  0.4824E+02
  -4.550  0.1026E+01  0.4825E+02
  -4.540  0.1020E+01  0.4826E+02
  -4.530  0.9886E+00  0.4827E+02
  -4.520  0.9874E+00  0.4828E+02
  -4.510  0.9849E+00  0.4829E+02
  -4.500  0.9835E+00  0.4830E+02
  -4.490  0.9906E+00  0.4831E+02
  -4.480  0.1002E+01  0.4832E+02
  -4.470  0.1013E+01  0.4833E+02
  -4.460  0.9898E+00  0.4834E+02
  -4.450  0.9726E+00  0.4835E+02
  -4.440  0.9772E+00  0.4836E+02
  -4.430  0.9780E+00  0.4837E+02
  -4.420  0.9773E+00  0.4838E+02
  -4.410  0.9795E+00  0.4839E+02
  -4.400  0.9887E+00  0.4840E+02
  -4.390  0.1001E+01  0.4840E+02
  -4.380  0.9938E+00  0.4841E+02
  -4.370  0.9807E+00  0.4842E+02
  -4.360  0.9717E+00  0.4843E+02
  -4.350  0.9769E+00  0.4844E+02
  -4.340  0.9765E+00  0.4845E+02
  -4.330  0.9793E+00  0.4846E+02
  -4.320  0.9823E+00  0.4847E+02
  -4.310  0.9841E+00  0.4848E+02
  -4.300  0.9945E+00  0.4849E+02
  -4.290  0.9990E+00  0.4850E+02
  -4.280  0.9867E+00  0.4851E+02
  -4.270  0.9802E+00  0.4852E+02
  -4.260  0.9771E+00  0.4853E+02
  -4.250  0.9783E+00  0.4854E+02
  -4.240  0.9843E+00  0.4855E+02
  -4.230  0.9858E+00  0.4856E+02
  -4.220  0.9895E+00  0.4857E+02
  -4.210  0.9933E+00  0.4858E+02
  -4.200  0.9989E+00  0.4859E+02
  -4.190  0.9988E+00  0.4860E+02
  -4.180  0.9949E+00  0.4861E+02
  -4.170  0.9915E+00  0.4862E+02
  -4.160  0.9901E+00  0.4863E+02
  -4.150  0.9875E+00  0.4864E+02
  -4.140  0.9891E+00  0.4865E+02
  -4.130  0.9974E+00  0.4866E+02
  -4.120  0.1001E+01  0.4867E+02
  -4.110  0.1004E+01  0.4868E+02
  -4.100  0.1007E+01  0.4869E+02
  -4.090  0.1009E+01  0.4870E+02
  -4.080  0.1009E+01  0.4871E+02
  -4.070  0.1012E+01  0.4872E+02
  -4.060  0.1007E+01  0.4873E+02
  -4.050  0.1005E+01  0.4874E+02
  -4.040  0.1005E+01  0.4875E+02
  -4.030  0.1006E+01  0.4876E+02
  -4.020  0.1011E+01  0.4877E+02
  -4.010  0.1017E+01  0.4878E+02
  -4.000  0.1021E+01  0.4879E+02
  -3.990  0.1025E+01  0.4880E+02
  -3.980  0.1028E+01  0.4881E+02
  -3.970  0.1024E+01  0.4882E+02
  -3.960  0.1028E+01  0.4883E+02
  -3.950  0.1031E+01  0.4884E+02
  -3.940  0.1028E+01  0.4885E+02
  -3.930  0.1028E+01  0.4886E+02
  -3.920  0.1029E+01  0.4887E+02
  -3.910  0.1030E+01  0.4889E+02
  -3.900  0.1034E+01  0.4890E+02
  -3.890  0.1041E+01  0.4891E+02
  -3.880  0.1045E+01  0.4892E+02
  -3.870  0.1049E+01  0.4893E+02
  -3.860  0.1049E+01  0.4894E+02
  -3.850  0.1049E+01  0.4895E+02
  -3.840  0.1051E+01  0.4896E+02
  -3.830  0.1058E+01  0.4897E+02
  -3.820  0.1056E+01  0.4898E+02
  -3.810  0.1057E+01  0.4899E+02
  -3.800  0.1059E+01  0.4900E+02
  -3.790  0.1060E+01  0.4901E+02
  -3.780  0.1062E+01  0.4902E+02
  -3.770  0.1069E+01  0.4903E+02
  -3.760  0.1076E+01  0.4904E+02
  -3.750  0.1081E+01  0.4905E+02
  -3.740  0.1081E+01  0.4906E+02
  -3.730  0.1082E+01  0.4908E+02
  -3.720  0.1082E+01  0.4909E+02
  -3.710  0.1087E+01  0.4910E+02
  -3.700  0.1094E+01  0.4911E+02
  -3.690  0.1093E+01  0.4912E+02
  -3.680  0.1095E+01  0.4913E+02
  -3.670  0.1098E+01  0.4914E+02
  -3.660  0.1100E+01  0.4915E+02
  -3.650  0.1103E+01  0.4916E+02
  -3.640  0.1113E+01  0.4917E+02
  -3.630  0.1120E+01  0.4919E+02
  -3.620  0.1124E+01  0.4920E+02
  -3.610  0.1123E+01  0.4921E+02
  -3.600  0.1125E+01  0.4922E+02
  -3.590  0.1127E+01  0.4923E+02
  -3.580  0.1135E+01  0.4924E+02
  -3.570  0.1144E+01  0.4925E+02
  -3.560  0.1145E+01  0.4926E+02
  -3.550  0.1151E+01  0.4928E+02
  -3.540  0.1157E+01  0.4929E+02
  -3.530  0.1166E+01  0.4930E+02
  -3.520  0.1184E+01  0.4931E+02
  -3.510  0.2609E+01  0.4932E+02
  -3.500  0.5700E+01  0.4936E+02
  -3.490  0.6385E+01  0.4942E+02
  -3.480  0.8286E+01  0.4949E+02
  -3.470  0.7640E+01  0.4958E+02
  -3.460  0.5502E+01  0.4964E+02
  -3.450  0.5524E+01  0.4970E+02
  -3.440  0.5220E+01  0.4975E+02
  -3.430  0.5233E+01  0.4981E+02
  -3.420  0.4900E+01  0.4986E+02
  -3.410  0.4717E+01  0.4991E+02
  -3.400  0.4615E+01  0.4995E+02
  -3.390  0.4529E+01  0.5000E+02
  -3.380  0.4629E+01  0.5004E+02
  -3.370  0.3891E+01  0.5009E+02
  -3.360  0.3840E+01  0.5013E+02
  -3.350  0.3861E+01  0.5017E+02
  -3.340  0.3880E+01  0.5020E+02
  -3.330  0.3899E+01  0.5024E+02
  -3.320  0.3888E+01  0.5028E+02
  -3.310  0.3889E+01  0.5032E+02
  -3.300  0.3894E+01  0.5036E+02
  -3.290  0.3926E+01  0.5040E+02
  -3.280  0.3960E+01  0.5044E+02
  -3.270  0.3990E+01  0.5048E+02
  -3.260  0.4016E+01  0.5052E+02
  -3.250  0.4062E+01  0.5056E+02
  -3.240  0.4123E+01  0.5060E+02
  -3.230  0.4193E+01  0.5064E+02
  -3.220  0.4244E+01  0.5068E+02
  -3.210  0.4387E+01  0.5073E+02
  -3.200  0.4519E+01  0.5077E+02
  -3.190  0.4775E+01  0.5082E+02
  -3.180  0.5732E+01  0.5087E+02
  -3.170  0.4936E+01  0.5092E+02
  -3.160  0.4541E+01  0.5097E+02
  -3.150  0.4318E+01  0.5101E+02
  -3.140  0.4184E+01  0.5105E+02
  -3.130  0.4137E+01  0.5110E+02
  -3.120  0.4015E+01  0.5114E+02
  -3.110  0.4017E+01  0.5118E+02
  -3.100  0.3946E+01  0.5122E+02
  -3.090  0.3891E+01  0.5126E+02
  -3.080  0.3870E+01  0.5129E+02
  -3.070  0.3910E+01  0.5133E+02
  -3.060  0.4086E+01  0.5137E+02
  -3.050  0.4089E+01  0.5141E+02
  -3.040  0.4644E+01  0.5146E+02
  -3.030  0.4052E+01  0.5151E+02
  -3.020  0.3780E+01  0.5154E+02
  -3.010  0.3723E+01  0.5158E+02
  -3.000  0.3720E+01  0.5162E+02
  -2.990  0.3655E+01  0.5166E+02
  -2.980  0.3574E+01  0.5169E+02
  -2.970  0.3505E+01  0.5173E+02
  -2.960  0.3432E+01  0.5176E+02
  -2.950  0.3326E+01  0.5180E+02
  -2.940  0.3283E+01  0.5183E+02
  -2.930  0.3575E+01  0.5186E+02
  -2.920  0.3577E+01  0.5190E+02
  -2.910  0.3494E+01  0.5193E+02
  -2.900  0.3383E+01  0.5197E+02
  -2.890  0.3293E+01  0.5200E+02
  -2.880  0.3238E+01  0.5204E+02
  -2.870  0.3232E+01  0.5207E+02
  -2.860  0.3211E+01  0.5210E+02
  -2.850  0.3095E+01  0.5213E+02
  -2.840  0.3058E+01  0.5216E+02
  -2.830  0.3045E+01  0.5219E+02
  -2.820  0.3026E+01  0.5222E+02
  -2.810  0.3013E+01  0.5225E+02
  -2.800  0.2975E+01  0.5228E+02
  -2.790  0.3024E+01  0.5231E+02
  -2.780  0.2895E+01  0.5234E+02
  -2.770  0.2870E+01  0.5237E+02
  -2.760  0.2853E+01  0.5240E+02
  -2.750  0.2841E+01  0.5243E+02
  -2.740  0.2818E+01  0.5246E+02
  -2.730  0.2791E+01  0.5248E+02
  -2.720  0.2793E+01  0.5251E+02
  -2.710  0.2797E+01  0.5254E+02
  -2.700  0.2798E+01  0.5257E+02
  -2.690  0.2749E+01  0.5260E+02
  -2.680  0.2754E+01  0.5262E+02
  -2.670  0.2739E+01  0.5265E+02
  -2.660  0.2787E+01  0.5268E+02
  -2.650  0.2510E+01  0.5271E+02
  -2.640  0.2614E+01  0.5274E+02
  -2.630  0.2294E+01  0.5277E+02
  -2.620  0.2292E+01  0.5279E+02
  -2.610  0.2338E+01  0.5281E+02
  -2.600  0.2339E+01  0.5284E+02
  -2.590  0.2401E+01  0.5286E+02
  -2.580  0.2476E+01  0.5289E+02
  -2.570  0.2564E+01  0.5291E+02
  -2.560  0.2582E+01  0.5294E+02
  -2.550  0.2562E+01  0.5296E+02
  -2.540  0.2570E+01  0.5300E+02
  -2.530  0.2501E+01  0.5302E+02
  -2.520  0.2487E+01  0.5305E+02
  -2.510  0.2464E+01  0.5307E+02
  -2.500  0.2452E+01  0.5310E+02
  -2.490  0.2502E+01  0.5312E+02
  -2.480  0.2518E+01  0.5315E+02
  -2.470  0.2593E+01  0.5317E+02
  -2.460  0.2622E+01  0.5320E+02
  -2.450  0.2574E+01  0.5322E+02
  -2.440  0.2577E+01  0.5325E+02
  -2.430  0.2593E+01  0.5328E+02
  -2.420  0.2536E+01  0.5330E+02
  -2.410  0.2520E+01  0.5333E+02
  -2.400  0.2515E+01  0.5335E+02
  -2.390  0.2499E+01  0.5338E+02
  -2.380  0.2488E+01  0.5340E+02
  -2.370  0.2497E+01  0.5343E+02
  -2.360  0.2500E+01  0.5345E+02
  -2.350  0.2515E+01  0.5348E+02
  -2.340  0.2529E+01  0.5350E+02
  -2.330  0.2505E+01  0.5353E+02
  -2.320  0.2524E+01  0.5355E+02
  -2.310  0.2500E+01  0.5358E+02
  -2.300  0.2475E+01  0.5360E+02
  -2.290  0.2458E+01  0.5363E+02
  -2.280  0.2449E+01  0.5365E+02
  -2.270  0.2488E+01  0.5368E+02
  -2.260  0.2523E+01  0.5370E+02
  -2.250  0.2528E+01  0.5373E+02
  -2.240  0.2385E+01  0.5375E+02
  -2.230  0.2409E+01  0.5377E+02
  -2.220  0.2412E+01  0.5380E+02
  -2.210  0.2478E+01  0.5382E+02
  -2.200  0.2500E+01  0.5385E+02
  -2.190  0.3154E+01  0.5388E+02
  -2.180  0.3288E+01  0.5391E+02
  -2.170  0.3406E+01  0.5394E+02
  -2.160  0.3478E+01  0.5398E+02
  -2.150  0.3548E+01  0.5401E+02
  -2.140  0.3614E+01  0.5405E+02
  -2.130  0.3632E+01  0.5408E+02
  -2.120  0.3708E+01  0.5412E+02
  -2.110  0.3716E+01  0.5416E+02
  -2.100  0.3768E+01  0.5419E+02
  -2.090  0.3763E+01  0.5423E+02
  -2.080  0.3863E+01  0.5427E+02
  -2.070  0.3902E+01  0.5431E+02
  -2.060  0.3923E+01  0.5435E+02
  -2.050  0.3853E+01  0.5439E+02
  -2.040  0.4024E+01  0.5442E+02
  -2.030  0.3779E+01  0.5446E+02
  -2.020  0.3920E+01  0.5450E+02
  -2.010  0.4127E+01  0.5454E+02
  -2.000  0.4410E+01  0.5458E+02
  -1.990  0.4556E+01  0.5463E+02
  -1.980  0.4466E+01  0.5468E+02
  -1.970  0.4658E+01  0.5472E+02
  -1.960  0.4679E+01  0.5477E+02
  -1.950  0.4612E+01  0.5482E+02
  -1.940  0.4564E+01  0.5486E+02
  -1.930  0.4611E+01  0.5491E+02
  -1.920  0.4539E+01  0.5495E+02
  -1.910  0.4413E+01  0.5500E+02
  -1.900  0.4440E+01  0.5504E+02
  -1.890  0.4485E+01  0.5509E+02
  -1.880  0.4513E+01  0.5513E+02
  -1.870  0.4518E+01  0.5518E+02
  -1.860  0.4763E+01  0.5523E+02
  -1.850  0.4965E+01  0.5528E+02
  -1.840  0.4556E+01  0.5533E+02
  -1.830  0.4429E+01  0.5537E+02
  -1.820  0.4132E+01  0.5542E+02
  -1.810  0.5649E+01  0.5547E+02
  -1.800  0.5162E+01  0.5552E+02
  -1.790  0.4684E+01  0.5557E+02
  -1.780  0.4571E+01  0.5562E+02
  -1.770  0.4397E+01  0.5566E+02
  -1.760  0.4454E+01  0.5571E+02
  -1.750  0.4465E+01  0.5575E+02
  -1.740  0.4507E+01  0.5580E+02
  -1.730  0.4406E+01  0.5584E+02
  -1.720  0.4256E+01  0.5589E+02
  -1.710  0.4297E+01  0.5593E+02
  -1.700  0.4347E+01  0.5597E+02
  -1.690  0.4453E+01  0.5602E+02
  -1.680  0.4465E+01  0.5606E+02
  -1.670  0.4602E+01  0.5611E+02
  -1.660  0.4380E+01  0.5615E+02
  -1.650  0.4222E+01  0.5620E+02
  -1.640  0.4101E+01  0.5624E+02
  -1.630  0.4102E+01  0.5628E+02
  -1.620  0.3873E+01  0.5632E+02
  -1.610  0.3799E+01  0.5636E+02
  -1.600  0.3759E+01  0.5640E+02
  -1.590  0.3764E+01  0.5643E+02
  -1.580  0.3658E+01  0.5647E+02
  -1.570  0.3620E+01  0.5651E+02
  -1.560  0.3569E+01  0.5654E+02
  -1.550  0.3457E+01  0.5658E+02
  -1.540  0.3517E+01  0.5662E+02
  -1.530  0.2209E+01  0.5665E+02
  -1.520  0.2174E+01  0.5667E+02
  -1.510  0.2158E+01  0.5669E+02
  -1.500  0.2143E+01  0.5671E+02
  -1.490  0.2127E+01  0.5673E+02
  -1.480  0.2113E+01  0.5676E+02
  -1.470  0.2064E+01  0.5678E+02
  -1.460  0.2057E+01  0.5680E+02
  -1.450  0.2029E+01  0.5682E+02
  -1.440  0.2010E+01  0.5684E+02
  -1.430  0.1995E+01  0.5686E+02
  -1.420  0.1978E+01  0.5688E+02
  -1.410  0.1970E+01  0.5690E+02
  -1.400  0.1962E+01  0.5692E+02
  -1.390  0.1960E+01  0.5694E+02
  -1.380  0.1971E+01  0.5696E+02
  -1.370  0.1980E+01  0.5698E+02
  -1.360  0.1966E+01  0.5700E+02
  -1.350  0.1953E+01  0.5702E+02
  -1.340  0.2204E+01  0.5704E+02
  -1.330  0.2244E+01  0.5706E+02
  -1.320  0.2152E+01  0.5708E+02
  -1.310  0.2092E+01  0.5711E+02
  -1.300  0.2018E+01  0.5713E+02
  -1.290  0.2093E+01  0.5715E+02
  -1.280  0.2267E+01  0.5717E+02
  -1.270  0.2368E+01  0.5719E+02
  -1.260  0.2326E+01  0.5722E+02
  -1.250  0.2266E+01  0.5724E+02
  -1.240  0.2782E+01  0.5726E+02
  -1.230  0.2723E+01  0.5729E+02
  -1.220  0.2588E+01  0.5732E+02
  -1.210  0.2337E+01  0.5734E+02
  -1.200  0.2365E+01  0.5737E+02
  -1.190  0.2381E+01  0.5739E+02
  -1.180  0.2446E+01  0.5741E+02
  -1.170  0.2519E+01  0.5744E+02
  -1.160  0.2628E+01  0.5746E+02
  -1.150  0.2519E+01  0.5749E+02
  -1.140  0.2552E+01  0.5752E+02
  -1.130  0.2664E+01  0.5754E+02
  -1.120  0.2689E+01  0.5757E+02
  -1.110  0.2845E+01  0.5760E+02
  -1.100  0.2993E+01  0.5763E+02
  -1.090  0.3114E+01  0.5766E+02
  -1.080  0.3136E+01  0.5769E+02
  -1.070  0.3467E+01  0.5772E+02
  -1.060  0.3710E+01  0.5776E+02
  -1.050  0.5720E+01  0.5780E+02
  -1.040  0.6071E+01  0.5785E+02
  -1.030  0.4450E+01  0.5791E+02
  -1.020  0.3751E+01  0.5795E+02
  -1.010  0.3509E+01  0.5799E+02
  -1.000  0.4413E+01  0.5803E+02
  -0.990  0.4459E+01  0.5807E+02
  -0.980  0.4558E+01  0.5812E+02
  -0.970  0.2138E+01  0.5816E+02
  -0.960  0.2086E+01  0.5818E+02
  -0.950  0.2049E+01  0.5820E+02
  -0.940  0.2021E+01  0.5822E+02
  -0.930  0.1997E+01  0.5824E+02
  -0.920  0.1975E+01  0.5826E+02
  -0.910  0.1971E+01  0.5828E+02
  -0.900  0.1961E+01  0.5830E+02
  -0.890  0.1960E+01  0.5832E+02
  -0.880  0.1981E+01  0.5834E+02
  -0.870  0.2027E+01  0.5836E+02
  -0.860  0.2054E+01  0.5838E+02
  -0.850  0.2078E+01  0.5840E+02
  -0.840  0.2080E+01  0.5842E+02
  -0.830  0.2088E+01  0.5844E+02
  -0.820  0.2103E+01  0.5846E+02
  -0.810  0.2114E+01  0.5848E+02
  -0.800  0.2089E+01  0.5851E+02
  -0.790  0.2012E+01  0.5853E+02
  -0.780  0.1946E+01  0.5855E+02
  -0.770  0.1885E+01  0.5857E+02
  -0.760  0.1887E+01  0.5858E+02
  -0.750  0.1888E+01  0.5860E+02
  -0.740  0.1890E+01  0.5862E+02
  -0.730  0.1908E+01  0.5864E+02
  -0.720  0.1954E+01  0.5866E+02
  -0.710  0.2057E+01  0.5868E+02
  -0.700  0.2158E+01  0.5870E+02
  -0.690  0.2203E+01  0.5872E+02
  -0.680  0.2339E+01  0.5875E+02
  -0.670  0.2404E+01  0.5877E+02
  -0.660  0.2537E+01  0.5880E+02
  -0.650  0.2621E+01  0.5882E+02
  -0.640  0.2573E+01  0.5885E+02
  -0.630  0.2605E+01  0.5887E+02
  -0.620  0.2775E+01  0.5890E+02
  -0.610  0.2850E+01  0.5893E+02
  -0.600  0.2388E+01  0.5895E+02
  -0.590  0.2289E+01  0.5898E+02
  -0.580  0.2237E+01  0.5900E+02
  -0.570  0.2609E+01  0.5903E+02
  -0.560  0.2308E+01  0.5905E+02
  -0.550  0.2256E+01  0.5907E+02
  -0.540  0.2245E+01  0.5910E+02
  -0.530  0.2265E+01  0.5912E+02
  -0.520  0.2278E+01  0.5914E+02
  -0.510  0.2322E+01  0.5917E+02
  -0.500  0.2368E+01  0.5919E+02
  -0.490  0.2426E+01  0.5921E+02
  -0.480  0.2510E+01  0.5924E+02
  -0.470  0.2541E+01  0.5926E+02
  -0.460  0.2526E+01  0.5929E+02
  -0.450  0.2529E+01  0.5931E+02
  -0.440  0.2679E+01  0.5934E+02
  -0.430  0.2621E+01  0.5937E+02
  -0.420  0.2677E+01  0.5939E+02
  -0.410  0.2916E+01  0.5942E+02
  -0.400  0.3126E+01  0.5945E+02
  -0.390  0.3269E+01  0.5948E+02
  -0.380  0.3016E+01  0.5951E+02
  -0.370  0.2814E+01  0.5955E+02
  -0.360  0.2779E+01  0.5957E+02
  -0.350  0.2866E+01  0.5960E+02
  -0.340  0.2894E+01  0.5963E+02
  -0.330  0.3179E+01  0.5966E+02
  -0.320  0.3470E+01  0.5970E+02
  -0.310  0.2365E+01  0.5973E+02
  -0.300  0.1487E+01  0.5975E+02
  -0.290  0.1491E+01  0.5976E+02
  -0.280  0.1446E+01  0.5978E+02
  -0.270  0.1325E+01  0.5979E+02
  -0.260  0.1314E+01  0.5980E+02
  -0.250  0.1244E+01  0.5981E+02
  -0.240  0.1353E+01  0.5983E+02
  -0.230  0.1151E+01  0.5984E+02
  -0.220  0.1248E+01  0.5985E+02
  -0.210  0.8365E+00  0.5986E+02
  -0.200  0.8050E+00  0.5987E+02
  -0.190  0.7845E+00  0.5988E+02
  -0.180  0.6534E+00  0.5989E+02
  -0.170  0.6428E+00  0.5989E+02
  -0.160  0.6955E+00  0.5990E+02
  -0.150  0.5500E+00  0.5990E+02
  -0.140  0.5255E+00  0.5991E+02
  -0.130  0.5011E+00  0.5992E+02
  -0.120  0.4864E+00  0.5992E+02
  -0.110  0.4808E+00  0.5993E+02
  -0.100  0.4807E+00  0.5993E+02
  -0.090  0.4345E+00  0.5993E+02
  -0.080  0.3906E+00  0.5994E+02
  -0.070  0.3723E+00  0.5994E+02
  -0.060  0.3584E+00  0.5995E+02
  -0.050  0.3435E+00  0.5995E+02
  -0.040  0.3316E+00  0.5995E+02
  -0.030  0.3439E+00  0.5996E+02
  -0.020  0.3589E+00  0.5996E+02
  -0.010  0.3196E+00  0.5996E+02
   0.000  0.3056E+00  0.5997E+02
   0.010  0.2943E+00  0.5997E+02
   0.020  0.2888E+00  0.5997E+02
   0.030  0.2691E+00  0.5998E+02
   0.040  0.2495E+00  0.5998E+02
   0.050  0.2559E+00  0.5998E+02
   0.060  0.2584E+00  0.5998E+02
   0.070  0.2464E+00  0.5999E+02
   0.080  0.2344E+00  0.5999E+02
   0.090  0.2600E+00  0.5999E+02
   0.100  0.2566E+00  0.5999E+02
   0.110  0.2153E+00  0.6000E+02
   0.120  0.2280E+00  0.6000E+02
   0.130  0.1657E+00  0.6000E+02
   0.140  0.0000E+00  0.6000E+02
   0.150  0.0000E+00  0.6000E+02
   0.160  0.0000E+00  0.6000E+02
   0.170  0.0000E+00  0.6000E+02
   0.180  0.0000E+00  0.6000E+02
   0.190  0.0000E+00  0.6000E+02
   0.200  0.0000E+00  0.6000E+02
   0.210  0.0000E+00  0.6000E+02
   0.220  0.0000E+00  0.6000E+02
   0.230  0.0000E+00  0.6000E+02
   0.240  0.0000E+00  0.6000E+02
   0.250  0.0000E+00  0.6000E+02
   0.260  0.0000E+00  0.6000E+02
   0.270  0.0000E+00  0.6000E+02
   0.280  0.0000E+00  0.6000E+02
   0.290  0.0000E+00  0.6000E+02
   0.300  0.0000E+00  0.6000E+02
   0.310  0.0000E+00  0.6000E+02
   0.320  0.0000E+00  0.6000E+02
   0.330  0.0000E+00  0.6000E+02
   0.340  0.0000E+00  0.6000E+02
   0.350  0.0000E+00  0.6000E+02
   0.360  0.0000E+00  0.6000E+02
   0.370  0.0000E+00  0.6000E+02
   0.380  0.0000E+00  0.6000E+02
   0.390  0.0000E+00  0.6000E+02
   0.400  0.0000E+00  0.6000E+02
   0.410  0.0000E+00  0.6000E+02
   0.420  0.0000E+00  0.6000E+02
   0.430  0.0000E+00  0.6000E+02
   0.440  0.0000E+00  0.6000E+02
   0.450  0.0000E+00  0.6000E+02
   0.460  0.0000E+00  0.6000E+02
   0.470  0.0000E+00  0.6000E+02
   0.480  0.0000E+00  0.6000E+02
   0.490  0.0000E+00  0.6000E+02
   0.500  0.0000E+00  0.6000E+02
   0.510  0.0000E+00  0.6000E+02
   0.520  0.0000E+00  0.6000E+02
   0.530  0.0000E+00  0.6000E+02
   0.540  0.0000E+00  0.6000E+02
   0.550  0.0000E+00  0.6000E+02
   0.560  0.0000E+00  0.6000E+02
   0.570  0.0000E+00  0.6000E+02
   0.580  0.0000E+00  0.6000E+02
   0.590  0.0000E+00  0.6000E+02
   0.600  0.0000E+00  0.6000E+02
   0.610  0.0000E+00  0.6000E+02
   0.620  0.0000E+00  0.6000E+02
   0.630  0.0000E+00  0.6000E+02
   0.640  0.0000E+00  0.6000E+02
   0.650  0.0000E+00  0.6000E+02
   0.660  0.0000E+00  0.6000E+02
   0.670  0.0000E+00  0.6000E+02
   0.680  0.0000E+00  0.6000E+02
   0.690  0.0000E+00  0.6000E+02
   0.700  0.0000E+00  0.6000E+02
   0.710  0.0000E+00  0.6000E+02
   0.720  0.0000E+00  0.6000E+02
   0.730  0.0000E+00  0.6000E+02
   0.740  0.0000E+00  0.6000E+02
   0.750  0.0000E+00  0.6000E+02
   0.760  0.0000E+00  0.6000E+02
   0.770  0.0000E+00  0.6000E+02
   0.780  0.0000E+00  0.6000E+02
   0.790  0.0000E+00  0.6000E+02
   0.800  0.0000E+00  0.6000E+02
   0.810  0.0000E+00  0.6000E+02
   0.820  0.0000E+00  0.6000E+02
   0.830  0.0000E+00  0.6000E+02
   0.840  0.0000E+00  0.6000E+02
   0.850  0.0000E+00  0.6000E+02
   0.860  0.0000E+00  0.6000E+02
   0.870  0.0000E+00  0.6000E+02
   0.880  0.0000E+00  0.6000E+02
   0.890  0.0000E+00  0.6000E+02
   0.900  0.0000E+00  0.6000E+02
   0.910  0.0000E+00  0.6000E+02
   0.920  0.0000E+00  0.6000E+02
   0.930  0.0000E+00  0.6000E+02
   0.940  0.0000E+00  0.6000E+02
   0.950  0.0000E+00  0.6000E+02
   0.960  0.0000E+00  0.6000E+02
   0.970  0.0000E+00  0.6000E+02
   0.980  0.0000E+00  0.6000E+02
   0.990  0.0000E+00  0.6000E+02
   1.000  0.0000E+00  0.6000E+02
   1.010  0.0000E+00  0.6000E+02
   1.020  0.0000E+00  0.6000E+02
   1.030  0.2897E+00  0.6000E+02
